#                                                           
#  __  __   ________   ___ __ __    _______   ______        
# /_/\/_/\ /_______/\ /__//_//_/\ /_______/\ /_____/\       
# \ \ \ \ \\::: _  \ \\::\| \| \ \\::: _  \ \\:::_ \ \      
#  \:\_\ \ \\::(_)  \ \\:.      \ \\::(_)  \/_\:\ \ \ \     
#   \::::_\/ \:: __  \ \\:.\-/\  \ \\::  _  \ \\:\ \ \ \    
#     \::\ \  \:.\ \  \ \\. \  \  \ \\::(_)  \ \\:\_\ \ \   
#      \__\/   \__\/\__\/ \__\/ \__\/ \_______\/ \_____\/   
#                                                           
#                                                           
#       Version 4.4.0 Revision 16919 Hash 5175bb50d         
#                        MPI Build                          
#                http://www.yambo-code.org                  
#
# Absorption @ Q(1) [q->0 direction] : 1.0000000  0.0000000  0.0000000
#
#
# - Energies      are Slater exchange(X)+Perdew & Zunger(C)
# - Wavefunctions are Slater exchange(X)+Perdew & Zunger(C)
#
# - The Green`s function is T-ordered -
# - Using the Length Gauge -
# - [r,Vnl] *is* included -
#
#    E/ev[1]       EPS-Im[2]     EPS-Re[3]
#
    4.0000       0.59713E-4     1.0030   
    4.0080       0.59909E-4     1.0030   
    4.0160       0.60107E-4     1.0030   
    4.0240       0.60306E-4     1.0030   
    4.0320       0.60507E-4     1.0030   
    4.0400       0.60708E-4     1.0030   
    4.0480       0.60911E-4     1.0030   
    4.0561       0.61115E-4     1.0030   
    4.0641       0.61320E-4     1.0030   
    4.0721       0.61527E-4     1.0030   
    4.0801       0.61735E-4     1.0030   
    4.0881       0.61944E-4     1.0030   
    4.0961       0.62154E-4     1.0031   
    4.1041       0.62366E-4     1.0031   
    4.1121       0.62579E-4     1.0031   
    4.1201       0.62794E-4     1.0031   
    4.1281       0.63009E-4     1.0031   
    4.1361       0.63226E-4     1.0031   
    4.1441       0.63445E-4     1.0031   
    4.1522       0.63665E-4     1.0031   
    4.1602       0.63886E-4     1.0031   
    4.1682       0.64108E-4     1.0031   
    4.1762       0.64332E-4     1.0031   
    4.1842       0.64558E-4     1.0031   
    4.1922       0.64784E-4     1.0031   
    4.2002       0.65013E-4     1.0031   
    4.2082       0.65242E-4     1.0031   
    4.2162       0.65473E-4     1.0031   
    4.2242       0.65706E-4     1.0031   
    4.2322       0.65940E-4     1.0031   
    4.2402       0.66176E-4     1.0031   
    4.2482       0.66413E-4     1.0031   
    4.2563       0.66651E-4     1.0031   
    4.2643       0.66892E-4     1.0031   
    4.2723       0.67133E-4     1.0031   
    4.2803       0.67376E-4     1.0031   
    4.2883       0.67621E-4     1.0032   
    4.2963       0.67868E-4     1.0032   
    4.3043       0.68116E-4     1.0032   
    4.3123       0.68365E-4     1.0032   
    4.3203       0.68616E-4     1.0032   
    4.3283       0.68869E-4     1.0032   
    4.3363       0.69124E-4     1.0032   
    4.3443       0.69380E-4     1.0032   
    4.3524       0.69637E-4     1.0032   
    4.3604       0.69897E-4     1.0032   
    4.3684       0.70158E-4     1.0032   
    4.3764       0.70421E-4     1.0032   
    4.3844       0.70686E-4     1.0032   
    4.3924       0.70952E-4     1.0032   
    4.4004       0.71220E-4     1.0032   
    4.4084       0.71490E-4     1.0032   
    4.4164       0.71762E-4     1.0032   
    4.4244       0.72035E-4     1.0032   
    4.4324       0.72311E-4     1.0032   
    4.4404       0.72588E-4     1.0032   
    4.4484       0.72867E-4     1.0032   
    4.4565       0.73148E-4     1.0033   
    4.4645       0.73430E-4     1.0033   
    4.4725       0.73715E-4     1.0033   
    4.4805       0.74002E-4     1.0033   
    4.4885       0.74290E-4     1.0033   
    4.4965       0.74580E-4     1.0033   
    4.5045       0.74873E-4     1.0033   
    4.5125       0.75167E-4     1.0033   
    4.5205       0.75464E-4     1.0033   
    4.5285       0.75762E-4     1.0033   
    4.5365       0.76062E-4     1.0033   
    4.5445       0.76365E-4     1.0033   
    4.5526       0.76670E-4     1.0033   
    4.5606       0.76976E-4     1.0033   
    4.5686       0.77285E-4     1.0033   
    4.5766       0.77596E-4     1.0033   
    4.5846       0.77909E-4     1.0033   
    4.5926       0.78224E-4     1.0033   
    4.6006       0.78541E-4     1.0033   
    4.6086       0.78861E-4     1.0033   
    4.6166       0.79183E-4     1.0034   
    4.6246       0.79507E-4     1.0034   
    4.6326       0.79833E-4     1.0034   
    4.6406       0.80162E-4     1.0034   
    4.6486       0.80493E-4     1.0034   
    4.6567       0.80826E-4     1.0034   
    4.6647       0.81161E-4     1.0034   
    4.6727       0.81499E-4     1.0034   
    4.6807       0.81840E-4     1.0034   
    4.6887       0.82182E-4     1.0034   
    4.6967       0.82527E-4     1.0034   
    4.7047       0.82875E-4     1.0034   
    4.7127       0.83225E-4     1.0034   
    4.7207       0.83578E-4     1.0034   
    4.7287       0.83933E-4     1.0034   
    4.7367       0.84290E-4     1.0034   
    4.7447       0.84651E-4     1.0034   
    4.7528       0.85013E-4     1.0035   
    4.7608       0.85379E-4     1.0035   
    4.7688       0.85747E-4     1.0035   
    4.7768       0.86118E-4     1.0035   
    4.7848       0.86491E-4     1.0035   
    4.7928       0.86867E-4     1.0035   
    4.8008       0.87246E-4     1.0035   
    4.8088       0.87628E-4     1.0035   
    4.8168       0.88012E-4     1.0035   
    4.8248       0.88400E-4     1.0035   
    4.8328       0.88790E-4     1.0035   
    4.8408       0.89183E-4     1.0035   
    4.8488       0.89579E-4     1.0035   
    4.8569       0.89978E-4     1.0035   
    4.8649       0.90379E-4     1.0035   
    4.8729       0.90784E-4     1.0035   
    4.8809       0.91192E-4     1.0035   
    4.8889       0.91603E-4     1.0036   
    4.8969       0.92017E-4     1.0036   
    4.9049       0.92434E-4     1.0036   
    4.9129       0.92854E-4     1.0036   
    4.9209       0.93278E-4     1.0036   
    4.9289       0.93704E-4     1.0036   
    4.9369       0.94134E-4     1.0036   
    4.9449       0.94567E-4     1.0036   
    4.9530       0.95003E-4     1.0036   
    4.9610       0.95443E-4     1.0036   
    4.9690       0.95886E-4     1.0036   
    4.9770       0.96333E-4     1.0036   
    4.9850       0.96783E-4     1.0036   
    4.9930       0.97236E-4     1.0036   
    5.0010       0.97693E-4     1.0036   
    5.0090       0.98153E-4     1.0037   
    5.0170       0.98617E-4     1.0037   
    5.0250       0.99085E-4     1.0037   
    5.0330       0.99556E-4     1.0037   
    5.0410       0.10003E-3     1.0037   
    5.0490       0.10051E-3     1.0037   
    5.0571       0.10099E-3     1.0037   
    5.0651       0.10148E-3     1.0037   
    5.0731       0.10197E-3     1.0037   
    5.0811       0.10246E-3     1.0037   
    5.0891       0.10296E-3     1.0037   
    5.0971       0.10346E-3     1.0037   
    5.1051       0.10397E-3     1.0037   
    5.1131       0.10448E-3     1.0038   
    5.1211       0.10499E-3     1.0038   
    5.1291       0.10551E-3     1.0038   
    5.1371       0.10603E-3     1.0038   
    5.1451       0.10656E-3     1.0038   
    5.1532       0.10709E-3     1.0038   
    5.1612       0.10762E-3     1.0038   
    5.1692       0.10816E-3     1.0038   
    5.1772       0.10871E-3     1.0038   
    5.1852       0.10926E-3     1.0038   
    5.1932       0.10981E-3     1.0038   
    5.2012       0.11036E-3     1.0038   
    5.2092       0.11093E-3     1.0038   
    5.2172       0.11149E-3     1.0039   
    5.2252       0.11206E-3     1.0039   
    5.2332       0.11264E-3     1.0039   
    5.2412       0.11322E-3     1.0039   
    5.2492       0.11381E-3     1.0039   
    5.2573       0.11440E-3     1.0039   
    5.2653       0.11499E-3     1.0039   
    5.2733       0.11559E-3     1.0039   
    5.2813       0.11620E-3     1.0039   
    5.2893       0.11681E-3     1.0039   
    5.2973       0.11742E-3     1.0039   
    5.3053       0.11805E-3     1.0039   
    5.3133       0.11867E-3     1.0040   
    5.3213       0.11930E-3     1.0040   
    5.3293       0.11994E-3     1.0040   
    5.3373       0.12058E-3     1.0040   
    5.3453       0.12123E-3     1.0040   
    5.3534       0.12189E-3     1.0040   
    5.3614       0.12254E-3     1.0040   
    5.3694       0.12321E-3     1.0040   
    5.3774       0.12388E-3     1.0040   
    5.3854       0.12456E-3     1.0040   
    5.3934       0.12524E-3     1.0040   
    5.4014       0.12593E-3     1.0041   
    5.4094       0.12662E-3     1.0041   
    5.4174       0.12732E-3     1.0041   
    5.4254       0.12803E-3     1.0041   
    5.4334       0.12874E-3     1.0041   
    5.4414       0.12946E-3     1.0041   
    5.4494       0.13019E-3     1.0041   
    5.4575       0.13092E-3     1.0041   
    5.4655       0.13166E-3     1.0041   
    5.4735       0.13241E-3     1.0041   
    5.4815       0.13316E-3     1.0041   
    5.4895       0.13392E-3     1.0042   
    5.4975       0.13469E-3     1.0042   
    5.5055       0.13546E-3     1.0042   
    5.5135       0.13624E-3     1.0042   
    5.5215       0.13703E-3     1.0042   
    5.5295       0.13782E-3     1.0042   
    5.5375       0.13863E-3     1.0042   
    5.5455       0.13944E-3     1.0042   
    5.5536       0.14025E-3     1.0042   
    5.5616       0.14108E-3     1.0042   
    5.5696       0.14191E-3     1.0043   
    5.5776       0.14275E-3     1.0043   
    5.5856       0.14360E-3     1.0043   
    5.5936       0.14446E-3     1.0043   
    5.6016       0.14532E-3     1.0043   
    5.6096       0.14619E-3     1.0043   
    5.6176       0.14708E-3     1.0043   
    5.6256       0.14796E-3     1.0043   
    5.6336       0.14886E-3     1.0043   
    5.6416       0.14977E-3     1.0044   
    5.6496       0.15068E-3     1.0044   
    5.6577       0.15161E-3     1.0044   
    5.6657       0.15254E-3     1.0044   
    5.6737       0.15348E-3     1.0044   
    5.6817       0.15444E-3     1.0044   
    5.6897       0.15540E-3     1.0044   
    5.6977       0.15637E-3     1.0044   
    5.7057       0.15735E-3     1.0044   
    5.7137       0.15834E-3     1.0045   
    5.7217       0.15934E-3     1.0045   
    5.7297       0.16035E-3     1.0045   
    5.7377       0.16136E-3     1.0045   
    5.7457       0.16239E-3     1.0045   
    5.7538       0.16343E-3     1.0045   
    5.7618       0.16448E-3     1.0045   
    5.7698       0.16555E-3     1.0045   
    5.7778       0.16662E-3     1.0046   
    5.7858       0.16770E-3     1.0046   
    5.7938       0.16879E-3     1.0046   
    5.8018       0.16990E-3     1.0046   
    5.8098       0.17102E-3     1.0046   
    5.8178       0.17214E-3     1.0046   
    5.8258       0.17328E-3     1.0046   
    5.8338       0.17444E-3     1.0046   
    5.8418       0.17560E-3     1.0047   
    5.8498       0.17678E-3     1.0047   
    5.8579       0.17796E-3     1.0047   
    5.8659       0.17916E-3     1.0047   
    5.8739       0.18038E-3     1.0047   
    5.8819       0.18160E-3     1.0047   
    5.8899       0.18284E-3     1.0047   
    5.8979       0.18410E-3     1.0048   
    5.9059       0.18536E-3     1.0048   
    5.9139       0.18664E-3     1.0048   
    5.9219       0.18794E-3     1.0048   
    5.9299       0.18924E-3     1.0048   
    5.9379       0.19057E-3     1.0048   
    5.9459       0.19190E-3     1.0048   
    5.9540       0.19325E-3     1.0049   
    5.9620       0.19462E-3     1.0049   
    5.9700       0.19600E-3     1.0049   
    5.9780       0.19740E-3     1.0049   
    5.9860       0.19881E-3     1.0049   
    5.9940       0.20024E-3     1.0049   
    6.0020       0.20168E-3     1.0049   
    6.0100       0.20314E-3     1.0050   
    6.0180       0.20462E-3     1.0050   
    6.0260       0.20611E-3     1.0050   
    6.0340       0.20762E-3     1.0050   
    6.0420       0.20915E-3     1.0050   
    6.0501       0.21070E-3     1.0050   
    6.0581       0.21226E-3     1.0051   
    6.0661       0.21384E-3     1.0051   
    6.0741       0.21544E-3     1.0051   
    6.0821       0.21706E-3     1.0051   
    6.0901       0.21869E-3     1.0051   
    6.0981       0.22035E-3     1.0051   
    6.1061       0.22203E-3     1.0052   
    6.1141       0.22372E-3     1.0052   
    6.1221       0.22544E-3     1.0052   
    6.1301       0.22718E-3     1.0052   
    6.1381       0.22893E-3     1.0052   
    6.1461       0.23071E-3     1.0052   
    6.1542       0.23251E-3     1.0053   
    6.1622       0.23433E-3     1.0053   
    6.1702       0.23618E-3     1.0053   
    6.1782       0.23805E-3     1.0053   
    6.1862       0.23994E-3     1.0053   
    6.1942       0.24185E-3     1.0053   
    6.2022       0.24379E-3     1.0054   
    6.2102       0.24575E-3     1.0054   
    6.2182       0.24773E-3     1.0054   
    6.2262       0.24974E-3     1.0054   
    6.2342       0.25178E-3     1.0054   
    6.2422       0.25384E-3     1.0055   
    6.2503       0.25593E-3     1.0055   
    6.2583       0.25804E-3     1.0055   
    6.2663       0.26018E-3     1.0055   
    6.2743       0.26235E-3     1.0055   
    6.2823       0.26455E-3     1.0056   
    6.2903       0.26678E-3     1.0056   
    6.2983       0.26903E-3     1.0056   
    6.3063       0.27132E-3     1.0056   
    6.3143       0.27363E-3     1.0056   
    6.3223       0.27598E-3     1.0057   
    6.3303       0.27835E-3     1.0057   
    6.3383       0.28076E-3     1.0057   
    6.3463       0.28320E-3     1.0057   
    6.3544       0.28568E-3     1.0058   
    6.3624       0.28819E-3     1.0058   
    6.3704       0.29073E-3     1.0058   
    6.3784       0.29330E-3     1.0058   
    6.3864       0.29591E-3     1.0058   
    6.3944       0.29856E-3     1.0059   
    6.4024       0.30125E-3     1.0059   
    6.4104       0.30397E-3     1.0059   
    6.4184       0.30673E-3     1.0059   
    6.4264       0.30953E-3     1.0060   
    6.4344       0.31237E-3     1.0060   
    6.4424       0.31524E-3     1.0060   
    6.4505       0.31816E-3     1.0060   
    6.4585       0.32113E-3     1.0061   
    6.4665       0.32413E-3     1.0061   
    6.4745       0.32718E-3     1.0061   
    6.4825       0.33027E-3     1.0061   
    6.4905       0.33341E-3     1.0062   
    6.4985       0.33659E-3     1.0062   
    6.5065       0.33983E-3     1.0062   
    6.5145       0.34310E-3     1.0062   
    6.5225       0.34643E-3     1.0063   
    6.5305       0.34981E-3     1.0063   
    6.5385       0.35324E-3     1.0063   
    6.5465       0.35672E-3     1.0063   
    6.5546       0.36026E-3     1.0064   
    6.5626       0.36385E-3     1.0064   
    6.5706       0.36749E-3     1.0064   
    6.5786       0.37119E-3     1.0065   
    6.5866       0.37495E-3     1.0065   
    6.5946       0.37877E-3     1.0065   
    6.6026       0.38265E-3     1.0065   
    6.6106       0.38659E-3     1.0066   
    6.6186       0.39059E-3     1.0066   
    6.6266       0.39465E-3     1.0066   
    6.6346       0.39879E-3     1.0067   
    6.6426       0.40299E-3     1.0067   
    6.6507       0.40725E-3     1.0067   
    6.6587       0.41159E-3     1.0068   
    6.6667       0.41600E-3     1.0068   
    6.6747       0.42048E-3     1.0068   
    6.6827       0.42504E-3     1.0069   
    6.6907       0.42967E-3     1.0069   
    6.6987       0.43439E-3     1.0069   
    6.7067       0.43918E-3     1.0070   
    6.7147       0.44405E-3     1.0070   
    6.7227       0.44901E-3     1.0070   
    6.7307       0.45406E-3     1.0071   
    6.7387       0.45919E-3     1.0071   
    6.7467       0.46441E-3     1.0071   
    6.7548       0.46973E-3     1.0072   
    6.7628       0.47513E-3     1.0072   
    6.7708       0.48064E-3     1.0072   
    6.7788       0.48624E-3     1.0073   
    6.7868       0.49195E-3     1.0073   
    6.7948       0.49776E-3     1.0074   
    6.8028       0.50368E-3     1.0074   
    6.8108       0.50970E-3     1.0074   
    6.8188       0.51584E-3     1.0075   
    6.8268       0.52209E-3     1.0075   
    6.8348       0.52846E-3     1.0076   
    6.8428       0.53495E-3     1.0076   
    6.8509       0.54157E-3     1.0076   
    6.8589       0.54831E-3     1.0077   
    6.8669       0.55518E-3     1.0077   
    6.8749       0.56219E-3     1.0078   
    6.8829       0.56933E-3     1.0078   
    6.8909       0.57662E-3     1.0079   
    6.8989       0.58405E-3     1.0079   
    6.9069       0.59163E-3     1.0080   
    6.9149       0.59936E-3     1.0080   
    6.9229       0.60725E-3     1.0080   
    6.9309       0.61531E-3     1.0081   
    6.9389       0.62353E-3     1.0081   
    6.9469       0.63192E-3     1.0082   
    6.9550       0.64048E-3     1.0082   
    6.9630       0.64923E-3     1.0083   
    6.9710       0.65816E-3     1.0083   
    6.9790       0.66729E-3     1.0084   
    6.9870       0.67661E-3     1.0084   
    6.9950       0.68614E-3     1.0085   
    7.0030       0.69588E-3     1.0086   
    7.0110       0.70583E-3     1.0086   
    7.0190       0.71601E-3     1.0087   
    7.0270       0.72641E-3     1.0087   
    7.0350       0.73706E-3     1.0088   
    7.0430       0.74794E-3     1.0088   
    7.0511       0.75908E-3     1.0089   
    7.0591       0.77048E-3     1.0090   
    7.0671       0.78215E-3     1.0090   
    7.0751       0.79409E-3     1.0091   
    7.0831       0.80633E-3     1.0091   
    7.0911       0.81885E-3     1.0092   
    7.0991       0.83169E-3     1.0093   
    7.1071       0.84484E-3     1.0093   
    7.1151       0.85831E-3     1.0094   
    7.1231       0.87213E-3     1.0095   
    7.1311       0.88630E-3     1.0095   
    7.1391       0.90083E-3     1.0096   
    7.1471       0.91573E-3     1.0097   
    7.1552       0.93103E-3     1.0097   
    7.1632       0.94672E-3     1.0098   
    7.1712       0.96284E-3     1.0099   
    7.1792       0.97939E-3     1.0100   
    7.1872       0.99639E-3     1.0100   
    7.1952       0.10139E-2     1.0101   
    7.2032       0.10318E-2     1.0102   
    7.2112       0.10503E-2     1.0103   
    7.2192       0.10693E-2     1.0104   
    7.2272       0.10888E-2     1.0104   
    7.2352       0.11089E-2     1.0105   
    7.2432       0.11296E-2     1.0106   
    7.2513       0.11509E-2     1.0107   
    7.2593       0.11728E-2     1.0108   
    7.2673       0.11954E-2     1.0109   
    7.2753       0.12188E-2     1.0110   
    7.2833       0.12428E-2     1.0111   
    7.2913       0.12676E-2     1.0112   
    7.2993       0.12932E-2     1.0113   
    7.3073       0.13196E-2     1.0114   
    7.3153       0.13469E-2     1.0115   
    7.3233       0.13751E-2     1.0116   
    7.3313       0.14043E-2     1.0117   
    7.3393       0.14344E-2     1.0118   
    7.3473       0.14656E-2     1.0119   
    7.3554       0.14979E-2     1.0120   
    7.3634       0.15313E-2     1.0121   
    7.3714       0.15660E-2     1.0122   
    7.3794       0.16019E-2     1.0124   
    7.3874       0.16392E-2     1.0125   
    7.3954       0.16779E-2     1.0126   
    7.4034       0.17180E-2     1.0127   
    7.4114       0.17598E-2     1.0129   
    7.4194       0.18032E-2     1.0130   
    7.4274       0.18483E-2     1.0131   
    7.4354       0.18953E-2     1.0133   
    7.4434       0.19443E-2     1.0134   
    7.4515       0.19954E-2     1.0136   
    7.4595       0.20486E-2     1.0137   
    7.4675       0.21042E-2     1.0139   
    7.4755       0.21623E-2     1.0140   
    7.4835       0.22231E-2     1.0142   
    7.4915       0.22866E-2     1.0144   
    7.4995       0.23532E-2     1.0145   
    7.5075       0.24230E-2     1.0147   
    7.5155       0.24963E-2     1.0149   
    7.5235       0.25733E-2     1.0151   
    7.5315       0.26542E-2     1.0153   
    7.5395       0.27393E-2     1.0155   
    7.5475       0.28291E-2     1.0157   
    7.5556       0.29237E-2     1.0159   
    7.5636       0.30237E-2     1.0161   
    7.5716       0.31294E-2     1.0163   
    7.5796       0.32413E-2     1.0165   
    7.5876       0.33599E-2     1.0168   
